File: AdiabaticProperties/HKUST-1/cyclefrom263K_columnB1_caseI.txt
step T[K] H[J/g] Nco2[mmol/g] Nch4[mmol/g]
stepI 322.725 51.6099 0.531505 2.28379
stepII 353.175 75.4854 2.97704 0
stepIII 292.056 27.7649 1.16185 0
stepIV 263.15 6.0652 0 0.374526

effective amount adsorbed of CO2 [mmol/g]: 0.531505
working capacity [mmol/g]: -0.630348
selectivity [-]: 5.34889
regenerability [%]: -118.597

T[K] NcI[mmol/g] NmI[mmol/g] NtI[mmol/g] NcII[mmol/g] NcIII[mmol/g] NcIV[mmol/g] NmIV[mmol/g] HI[J/g] HII[J/g] HIII[J/g] HIV[J/g] intCp[J/g]
200 8.74777 3.98487 12.7326 14.9649 11.7143 0.0 3.24257 286.988 336.705 274.069 53.7637 -35.552
202 8.54823 4.11372 12.662 14.9389 11.5907 0.0 3.01673 284.747 336.593 272.199 50.0275 -34.3772
204 8.34905 4.2395 12.5886 14.9116 11.462 0.0 2.80167 282.391 336.471 270.208 46.4473 -33.1926
206 8.15041 4.36187 12.5123 14.883 11.3279 0.0 2.59839 279.918 336.338 268.079 43.0543 -31.9981
208 7.95248 4.4805 12.433 14.8529 11.1881 0.0 2.4075 277.33 336.192 265.803 39.8625 -30.7939
210 7.75541 4.59507 12.3505 14.8214 11.0421 0.0 2.22928 274.631 336.032 263.369 36.8793 -29.58
212 7.55935 4.70526 12.2646 14.7883 10.8898 0.0 2.06369 271.822 335.857 260.763 34.1062 -28.3564
214 7.3644 4.8108 12.1752 14.7536 10.7306 0.0 1.91043 268.907 335.665 257.974 31.5397 -27.1232
216 7.17068 4.9114 12.0821 14.7171 10.5642 0.0 1.76903 265.887 335.455 254.986 29.1727 -25.8803
218 6.97828 5.00679 11.9851 14.6788 10.3902 0.0 1.63886 262.765 335.226 251.785 26.9954 -24.6279
220 6.78726 5.09673 11.884 14.6386 10.208 0.0 1.51923 259.543 334.975 248.353 24.9963 -23.3659
222 6.5977 5.18097 11.7787 14.5963 10.0171 0.0 1.4094 256.223 334.7 244.673 23.1632 -22.0944
224 6.40965 5.25928 11.6689 14.5519 9.81714 0.0 1.30864 252.808 334.399 240.725 21.4834 -20.8134
226 6.22316 5.33145 11.5546 14.5053 9.60739 0.0 1.21622 249.299 334.07 236.489 19.9447 -19.5231
228 6.03825 5.39727 11.4355 14.4563 9.38731 0.0 1.13143 245.697 333.71 231.944 18.5352 -18.2234
230 5.85495 5.45652 11.3115 14.4048 9.15631 0.0 1.05363 242.004 333.316 227.067 17.2435 -16.9144
232 5.67328 5.50904 11.1823 14.3507 8.91376 0.0 0.982198 238.221 332.886 221.835 16.0592 -15.5961
234 5.49327 5.55462 11.0479 14.2939 8.65903 0.0 0.916569 234.348 332.415 216.224 14.9727 -14.2687
236 5.31492 5.59309 10.908 14.2342 8.39156 0.0 0.856226 230.387 331.9 210.212 13.975 -12.9322
238 5.13824 5.62429 10.7625 14.1714 8.1108 0.0 0.800694 226.337 331.337 203.776 13.058 -11.5867
240 4.96325 5.64804 10.6113 14.1054 7.81636 0.0 0.749542 222.2 330.722 196.899 12.2144 -10.2322
242 4.78995 5.66419 10.4541 14.036 7.50799 0.0 0.702379 217.975 330.05 189.568 11.4376 -8.8688
244 4.61838 5.67258 10.291 13.9631 7.18573 0.0 0.65885 213.662 329.316 181.779 10.7214 -7.49667
246 4.44855 5.67309 10.1216 13.8865 6.85003 0.0 0.618634 209.261 328.514 173.539 10.0605 -6.11584
248 4.28049 5.66559 9.94608 13.8059 6.50185 0.0 0.581441 204.773 327.64 164.873 9.44991 -4.72643
250 4.07348 5.68688 9.76036 13.7213 6.14286 0.0 0.547008 199.963 326.685 155.827 8.88521 -3.32854
252 3.9499 5.62613 9.57603 13.6323 5.77557 0.0 0.515098 195.538 325.645 146.473 8.36238 -1.92229
254 3.78751 5.59402 9.38153 13.5388 5.4034 0.0 0.485497 190.795 324.511 136.912 7.87782 -0.507784
256 3.62718 5.55363 9.18081 13.4406 5.03067 0.0 0.458009 185.97 323.276 127.271 7.42824 0.914844
258 3.46904 5.50497 8.97401 13.3374 4.66236 0.0 0.432459 181.068 321.931 117.699 7.01069 2.34546
260 3.31323 5.44812 8.76135 13.229 4.30371 0.0 0.408686 176.094 320.469 108.349 6.62249 3.78393
262 3.15994 5.38322 8.54316 13.1152 3.95966 0.0 0.386546 171.055 318.879 99.3702 6.26123 5.23011
264 3.00938 5.31048 8.31986 12.9956 3.63436 0.0 0.365908 165.958 317.151 90.8835 5.9247 6.68383
266 2.86178 5.23018 8.09197 12.87 3.33077 0.0 0.346651 160.816 315.276 82.9764 5.6109 8.14494
268 2.71741 5.14272 7.86013 12.7382 3.05053 0.0 0.328667 155.64 313.241 75.6977 5.31803 9.61327
270 2.57654 5.04857 7.62511 12.5998 2.79408 0.0 0.311857 150.444 311.037 69.0603 5.04444 11.0886
272 2.43948 4.94828 7.38776 12.4546 2.56085 0.0 0.296131 145.246 308.65 63.0494 4.78863 12.5708
274 2.30652 4.84249 7.14902 12.3023 2.34965 0.0 0.281406 140.062 306.067 57.6306 4.54923 14.0597
276 2.17797 4.73193 6.90989 12.1425 2.15885 0.0 0.267606 134.913 303.276 52.7586 4.325 15.555
278 2.05408 4.61736 6.67144 11.9749 1.98667 0.0 0.254664 129.817 300.263 48.3833 4.1148 17.0565
280 1.93511 4.49959 6.4347 11.7993 1.8313 0.0 0.242516 124.793 297.013 44.4541 3.91758 18.5641
282 1.82127 4.37944 6.2007 11.6152 1.691 0.0 0.231105 119.861 293.513 40.9226 3.7324 20.0774
284 1.71271 4.25773 5.97044 11.4224 1.56415 0.0 0.220377 115.038 289.747 37.7443 3.55838 21.5962
286 1.60954 4.13525 5.74479 11.2205 1.44928 0.0 0.210284 110.339 285.7 34.8788 3.39472 23.1204
288 1.51181 4.01275 5.52455 11.0094 1.34507 0.0 0.200781 105.779 281.359 32.2901 3.2407 24.6495
290 1.4195 3.8909 5.3104 10.7887 1.25036 0.0 0.191828 101.369 276.71 29.9466 3.09562 26.1833
292 1.33257 3.77032 5.10289 10.5582 1.16411 0.0 0.183386 97.1162 271.74 27.8205 2.95889 27.7216
294 1.25089 3.65154 4.90244 10.3178 1.08542 0.0 0.175421 93.0284 266.439 25.8874 2.82991 29.264
296 1.17433 3.53502 4.70935 10.0674 1.01347 0.0 0.167901 89.1088 260.799 24.126 2.70818 30.8103
298 1.10269 3.42113 4.52382 9.80719 0.947568 0.0 0.160796 85.3591 254.814 22.5178 2.59319 32.36
300 1.03576 3.31015 4.34592 9.53736 0.887096 0.0 0.154078 81.7789 248.486 21.0464 2.48451 33.9133
302 0.973315 3.20233 4.17564 9.25834 0.831508 0.0 0.147724 78.3662 241.82 19.6976 2.38173 35.4686
304 0.915105 3.0978 4.01291 8.9708 0.780322 0.0 0.141708 75.1175 234.83 18.4588 2.28445 37.0239
306 0.860882 2.99669 3.85757 8.67564 0.733113 0.0 0.13601 72.0282 227.538 17.3191 2.19233 38.5793
308 0.810396 2.89903 3.70943 8.37404 0.689504 0.0 0.130609 69.0928 219.973 16.2688 2.10504 40.1352
310 0.763402 2.80485 3.56825 8.06745 0.649162 0.0 0.125488 66.3054 212.176 15.2992 2.02227 41.6916
312 0.719658 2.71412 3.43378 7.75758 0.611788 0.0 0.120627 63.6596 204.196 14.4028 1.94375 43.2486
314 0.678936 2.62679 3.30573 7.44631 0.577117 0.0 0.116013 61.1486 196.09 13.5729 1.86921 44.8064
316 0.641016 2.54281 3.18382 7.1357 0.544912 0.0 0.111629 58.7658 187.92 12.8033 1.79841 46.3649
318 0.605691 2.46208 3.06777 6.82779 0.51496 0.0 0.107462 56.5045 179.751 12.0888 1.73112 47.9241
320 0.572768 2.3845 2.95727 6.52462 0.487071 0.0 0.103499 54.3581 171.649 11.4246 1.66714 49.4839
322 0.542065 2.30998 2.85205 6.22804 0.461072 0.0 0.099728 52.3202 163.674 10.8063 1.60626 51.0443
324 0.513414 2.23841 2.75182 5.93968 0.43681 0.0 0.0961377 50.3848 155.883 10.2302 1.54832 52.6054
326 0.486659 2.16967 2.65633 5.6609 0.414145 0.0 0.0927177 48.5459 148.323 9.69262 1.49312 54.167
328 0.461657 2.10365 2.56531 5.39275 0.392949 0.0 0.0894582 46.798 141.031 9.19058 1.44053 55.7292
330 0.438274 2.04025 2.47852 5.13595 0.373109 0.0 0.0863502 45.1357 134.035 8.72121 1.39039 57.2919
332 0.416389 1.97934 2.39573 4.89094 0.35452 0.0 0.0833852 43.5541 127.354 8.28194 1.34256 58.8553
334 0.395888 1.92083 2.31671 4.65791 0.337088 0.0 0.0805552 42.0485 120.998 7.87044 1.29692 60.4193
336 0.37667 1.8646 2.24127 4.43683 0.320727 0.0 0.0778528 40.6144 114.971 7.4846 1.25334 61.984
338 0.358638 1.81056 2.16919 4.22751 0.305358 0.0 0.075271 39.2477 109.269 7.12249 1.2117 63.5498
340 0.341706 1.7586 2.10031 4.02961 0.290908 0.0 0.0728033 37.9446 103.886 6.78236 1.17192 65.1166
342 0.325795 1.70864 2.03444 3.8427 0.277313 0.0 0.0704436 36.7013 98.8114 6.4626 1.13387 66.6847
344 0.310829 1.66059 1.97142 3.66631 0.264511 0.0 0.0681862 35.5144 94.0322 6.16177 1.09748 68.2544
346 0.296743 1.61435 1.9111 3.49991 0.252449 0.0 0.0660256 34.3808 89.5344 5.8785 1.06266 69.826
348 0.283473 1.56985 1.85333 3.34297 0.241074 0.0 0.0639569 33.2975 85.3029 5.61158 1.02932 71.3998
350 0.270964 1.52701 1.79798 3.19493 0.23034 0.0 0.0619752 32.2616 81.3225 5.35987 0.997382 72.9762
352 0.259162 1.48575 1.74492 3.05528 0.220204 0.0 0.0600762 31.2707 77.5779 5.12235 0.96678 74.5556
354 0.24802 1.44601 1.69403 2.92348 0.210627 0.0 0.0582555 30.3221 74.0544 4.89804 0.937445 76.1385
356 0.237492 1.40771 1.6452 2.79905 0.201571 0.0 0.0565094 29.4138 70.7377 4.68608 0.909312 77.7253
358 0.227538 1.37079 1.59833 2.68151 0.193004 0.0 0.054834 28.5434 67.6141 4.48566 0.882321 79.3165
360 0.218121 1.3352 1.55332 2.57043 0.184893 0.0 0.0532259 27.709 64.6709 4.29601 0.856416 80.9127
362 0.209204 1.30086 1.51007 2.46538 0.17721 0.0 0.0516818 26.9087 61.8959 4.11646 0.831543 82.5143
364 0.200756 1.26774 1.46849 2.36597 0.169928 0.0 0.0501985 26.1408 59.2779 3.94636 0.807652 84.1218
366 0.192747 1.23577 1.42851 2.27184 0.163022 0.0 0.0487731 25.4036 56.8061 3.78512 0.784695 85.7359
368 0.185149 1.2049 1.39005 2.18264 0.156469 0.0 0.0474029 24.6955 54.4709 3.63219 0.762629 87.3568
370 0.177936 1.17509 1.35303 2.09807 0.150247 0.0 0.0460853 24.0151 52.263 3.48705 0.741409 88.9853
372 0.171086 1.1463 1.31739 2.01782 0.144337 0.0 0.0448177 23.3611 50.1741 3.34924 0.720997 90.6215
374 0.164576 1.11848 1.28306 1.94163 0.13872 0.0 0.0435978 22.732 48.1962 3.21831 0.701356 92.2661
376 0.158384 1.09159 1.24997 1.86924 0.133379 0.0 0.0424235 22.1268 46.3222 3.09385 0.682448 93.9192
378 0.152494 1.06559 1.21809 1.80042 0.128298 0.0 0.0412926 21.5443 44.5452 2.97549 0.664241 95.5811
380 0.146886 1.04045 1.18733 1.73494 0.123461 0.0 0.0402032 20.9834 42.8591 2.86286 0.646702 97.252
382 0.141544 1.01613 1.15767 1.67261 0.118856 0.0 0.0391534 20.443 41.258 2.75563 0.629802 98.932
384 0.136453 0.992592 1.12905 1.61324 0.114467 0.0 0.0381415 19.9223 39.7367 2.65351 0.613511 100.621
386 0.131599 0.969813 1.10141 1.55665 0.110284 0.0 0.0371656 19.4203 38.2902 2.55619 0.597803 102.319
388 0.126968 0.94776 1.07473 1.50268 0.106295 0.0 0.0362244 18.9361 36.9139 2.4634 0.582652 104.025
390 0.122547 0.926404 1.04895 1.45117 0.102489 0.0 0.0353161 18.4691 35.6036 2.3749 0.568034 105.739
392 0.118326 0.905717 1.02404 1.402 0.0988566 0.0 0.0344396 18.0183 34.3553 2.29045 0.553925 107.461
394 0.114293 0.885674 0.999967 1.35502 0.0953878 0.0 0.0335932 17.5832 33.1653 2.20983 0.540304 109.189
396 0.110438 0.866249 0.976688 1.31012 0.0920741 0.0 0.0327758 17.1629 32.0302 2.13283 0.52715 110.922
398 0.106752 0.84742 0.954172 1.26717 0.0889071 0.0 0.0319862 16.7569 30.9469 2.05925 0.514442 112.659
    400 0.103225 0.829162 0.932388 1.22608 0.0858791 0.0 0.0312232 16.3645 29.9124 1.98892 0.502163 114.399