File: AdiabaticProperties/HKUST-1/cyclefrom263K.txt
step T[K] H[J/g] Nco2[mmol/g] Nch4[mmol/g]
stepI 355.899 77.7791 2.66463 0.647198
stepII 353.122 75.5774 2.98049 0
stepIII 291.981 27.8406 1.16493 0
stepIV 263.0 6.09 0 0.376047

effective amount adsorbed of CO2 [mmol/g]: 2.66463
working capacity [mmol/g]: 1.4997
selectivity [-]: 4.11718
regenerability [%]: 56.2816

T[K] NcI[mmol/g] NmI[mmol/g] NtI[mmol/g] NcII[mmol/g] NcIII[mmol/g] NcIV[mmol/g] NmIV[mmol/g] HI[J/g] HII[J/g] HIII[J/g] HIV[J/g] intCp[J/g]
200 14.6846 0.3167 15.0013 14.9649 11.7143 0.0 3.24257 335.079 336.705 274.069 53.7637 -35.4181
202 14.6445 0.33284 14.9773 14.9389 11.5907 0.0 3.01673 335.125 336.593 272.199 50.0275 -34.2432
204 14.6029 0.34925 14.9521 14.9116 11.462 0.0 2.80167 335.159 336.471 270.208 46.4473 -33.0586
206 14.5596 0.3659 14.9255 14.883 11.3279 0.0 2.59839 335.177 336.338 268.079 43.0543 -31.8642
208 14.5147 0.382761 14.8975 14.8529 11.1881 0.0 2.4075 335.178 336.192 265.803 39.8625 -30.66
210 14.4681 0.399806 14.868 14.8214 11.0421 0.0 2.22928 335.16 336.032 263.369 36.8793 -29.4461
212 14.4198 0.417004 14.8368 14.7883 10.8898 0.0 2.06369 335.12 335.857 260.763 34.1062 -28.2225
214 14.3696 0.434327 14.8039 14.7536 10.7306 0.0 1.91043 335.058 335.665 257.974 31.5397 -26.9892
216 14.3175 0.451747 14.7692 14.7171 10.5642 0.0 1.76903 334.969 335.455 254.986 29.1727 -25.7464
218 14.2634 0.469238 14.7326 14.6788 10.3902 0.0 1.63886 334.853 335.226 251.785 26.9954 -24.4939
220 14.2072 0.486779 14.694 14.6386 10.208 0.0 1.51923 334.705 334.975 248.353 24.9963 -23.2319
222 14.149 0.504337 14.6533 14.5963 10.0171 0.0 1.4094 334.524 334.7 244.673 23.1632 -21.9604
224 14.0884 0.5219 14.6103 14.5519 9.81714 0.0 1.30864 334.307 334.399 240.725 21.4834 -20.6795
226 14.0256 0.539449 14.5651 14.5053 9.60739 0.0 1.21622 334.05 334.07 236.489 19.9447 -19.3891
228 13.9604 0.556966 14.5173 14.4563 9.38731 0.0 1.13143 333.751 333.71 231.944 18.5352 -18.0894
230 13.8926 0.574438 14.467 14.4048 9.15631 0.0 1.05363 333.406 333.316 227.067 17.2435 -16.7804
232 13.8222 0.591853 14.4141 14.3507 8.91376 0.0 0.982198 333.012 332.886 221.835 16.0592 -15.4622
234 13.7491 0.609203 14.3583 14.2939 8.65903 0.0 0.916569 332.565 332.415 216.224 14.9727 -14.1347
236 13.6731 0.626481 14.2996 14.2342 8.39156 0.0 0.856226 332.061 331.9 210.212 13.975 -12.7982
238 13.5941 0.643679 14.2378 14.1714 8.1108 0.0 0.800694 331.496 331.337 203.776 13.058 -11.4527
240 13.5121 0.660795 14.1729 14.1054 7.81636 0.0 0.749542 330.866 330.722 196.899 12.2144 -10.0982
242 13.4268 0.677823 14.1046 14.036 7.50799 0.0 0.702379 330.165 330.05 189.568 11.4376 -8.73484
244 13.3381 0.694762 14.0328 13.9631 7.18573 0.0 0.65885 329.39 329.316 181.779 10.7214 -7.3627
246 13.2459 0.711608 13.9575 13.8865 6.85003 0.0 0.618634 328.534 328.514 173.539 10.0605 -5.98188
248 13.15 0.728358 13.8783 13.8059 6.50185 0.0 0.581441 327.593 327.64 164.873 9.44991 -4.59247
250 13.0502 0.745007 13.7952 13.7213 6.14286 0.0 0.547008 326.56 326.685 155.827 8.88521 -3.19458
252 12.9465 0.76155 13.7081 13.6323 5.77557 0.0 0.515098 325.43 325.645 146.473 8.36238 -1.78832
254 12.8387 0.77798 13.6167 13.5388 5.4034 0.0 0.485497 324.195 324.511 136.912 7.87782 -0.373819
256 12.7265 0.794287 13.5208 13.4406 5.03067 0.0 0.458009 322.849 323.276 127.271 7.42824 1.04881
258 12.6099 0.81046 13.4204 13.3374 4.66236 0.0 0.432459 321.386 321.931 117.699 7.01069 2.47943
260 12.4886 0.826484 13.3151 13.229 4.30371 0.0 0.408686 319.796 320.469 108.349 6.62249 3.9179
262 12.3625 0.84234 13.2048 13.1152 3.95966 0.0 0.386546 318.073 318.879 99.3702 6.26123 5.36407
264 12.2314 0.858005 13.0894 12.9956 3.63436 0.0 0.365908 316.209 317.151 90.8835 5.9247 6.81779
266 12.0951 0.873453 12.9686 12.87 3.33077 0.0 0.346651 314.194 315.276 82.9764 5.6109 8.2789
268 11.9535 0.888653 12.8422 12.7382 3.05053 0.0 0.328667 312.021 313.241 75.6977 5.31803 9.74723
270 11.8064 0.903567 12.71 12.5998 2.79408 0.0 0.311857 309.68 311.037 69.0603 5.04444 11.2226
272 11.6536 0.918153 12.5717 12.4546 2.56085 0.0 0.296131 307.162 308.65 63.0494 4.78863 12.7048
274 11.4949 0.932364 12.4272 12.3023 2.34965 0.0 0.281406 304.457 306.067 57.6306 4.54923 14.1937
276 11.3301 0.946143 12.2762 12.1425 2.15885 0.0 0.267606 301.556 303.276 52.7586 4.325 15.689
278 11.1577 0.960782 12.1185 11.9749 1.98667 0.0 0.254664 298.446 300.263 48.3833 4.1148 17.1905
280 10.9818 0.972155 11.9539 11.7993 1.8313 0.0 0.242516 295.125 297.013 44.4541 3.91758 18.6981
282 10.7978 0.984244 11.7821 11.6152 1.691 0.0 0.231105 291.576 293.513 40.9226 3.7324 20.2114
284 10.6072 0.995614 11.6028 11.4224 1.56415 0.0 0.220377 287.79 289.747 37.7443 3.55838 21.7302
286 10.4097 1.00617 11.4159 11.2205 1.44928 0.0 0.210284 283.759 285.7 34.8788 3.39472 23.2543
288 10.2052 1.01583 11.2211 11.0094 1.34507 0.0 0.200781 279.473 281.359 32.2901 3.2407 24.7834
290 9.99369 1.02448 11.0182 10.7887 1.25036 0.0 0.191828 274.923 276.71 29.9466 3.09562 26.3173
292 9.77499 1.03201 10.807 10.5582 1.16411 0.0 0.183386 270.102 271.74 27.8205 2.95889 27.8556
294 9.5491 1.03832 10.5874 10.3178 1.08542 0.0 0.175421 265.004 266.439 25.8874 2.82991 29.398
296 9.31606 1.04329 10.3593 10.0674 1.01347 0.0 0.167901 259.624 260.799 24.126 2.70818 30.9442
298 9.07597 1.0468 10.1228 9.80719 0.947568 0.0 0.160796 253.959 254.814 22.5178 2.59319 32.494
300 8.82902 1.04877 9.87779 9.53736 0.887096 0.0 0.154078 248.012 248.486 21.0464 2.48451 34.0472
302 8.57552 1.04907 9.6246 9.25834 0.831508 0.0 0.147724 241.786 241.82 19.6976 2.38173 35.6026
304 8.31592 1.04764 9.36356 8.9708 0.780322 0.0 0.141708 235.292 234.83 18.4588 2.28445 37.1578
306 8.0508 1.0444 9.09521 8.67564 0.733113 0.0 0.13601 228.544 227.538 17.3191 2.19233 38.7133
308 7.78096 1.03932 8.82028 8.37404 0.689504 0.0 0.130609 221.565 219.973 16.2688 2.10504 40.2691
310 7.50734 1.03238 8.53972 8.06745 0.649162 0.0 0.125488 214.381 212.176 15.2992 2.02227 41.8255
312 7.2311 1.0236 8.2547 7.75758 0.611788 0.0 0.120627 207.027 204.196 14.4028 1.94375 43.3826
314 6.95354 1.01305 7.96659 7.44631 0.577117 0.0 0.116013 199.546 196.09 13.5729 1.86921 44.9404
316 6.6761 1.00082 7.67691 7.1357 0.544912 0.0 0.111629 191.984 187.92 12.8033 1.79841 46.4989
318 6.4003 0.987035 7.38734 6.82779 0.51496 0.0 0.107462 184.39 179.751 12.0888 1.73112 48.058
320 6.1277 0.971865 7.09957 6.52462 0.487071 0.0 0.103499 176.819 171.649 11.4246 1.66714 49.6179
322 5.8598 0.955491 6.81529 6.22804 0.461072 0.0 0.099728 169.32 163.674 10.8063 1.60626 51.1783
324 5.598 0.93811 6.53611 5.93968 0.43681 0.0 0.0961377 161.944 155.883 10.2302 1.54832 52.7394
326 5.34353 0.919927 6.26346 5.6609 0.414145 0.0 0.0927177 154.734 148.323 9.69262 1.49312 54.301
328 5.09742 0.90114 5.99856 5.39275 0.392949 0.0 0.0894582 147.73 141.031 9.19058 1.44053 55.8631
330 4.86049 0.881937 5.74242 5.13595 0.373109 0.0 0.0863502 140.962 134.035 8.72121 1.39039 57.4259
332 4.63331 0.862491 5.4958 4.89094 0.35452 0.0 0.0833852 134.453 127.354 8.28194 1.34256 58.9892
334 4.41624 0.842955 5.2592 4.65791 0.337088 0.0 0.0805552 128.22 120.998 7.87044 1.29692 60.5532
336 4.20946 0.82346 5.03292 4.43683 0.320727 0.0 0.0778528 122.272 114.971 7.4846 1.25334 62.118
338 4.01296 0.804114 4.81707 4.22751 0.305358 0.0 0.075271 116.614 109.269 7.12249 1.2117 63.6837
340 3.82659 0.785009 4.6116 4.02961 0.290908 0.0 0.0728033 111.243 103.886 6.78236 1.17192 65.2505
342 3.65011 0.766214 4.41632 3.8427 0.277313 0.0 0.0704436 106.137 98.8114 6.4626 1.13387 66.8186
344 3.48326 0.74771 4.23097 3.66631 0.264511 0.0 0.0681862 101.326 94.0322 6.16177 1.09748 68.3883
346 3.32541 0.729758 4.05517 3.49991 0.252449 0.0 0.0660256 96.7967 89.5344 5.8785 1.06266 69.9599
348 3.17638 0.712167 3.88855 3.34297 0.241074 0.0 0.0639569 92.5028 85.3029 5.61158 1.02932 71.5337
350 3.03565 0.695029 3.73068 3.19493 0.23034 0.0 0.0619752 88.45 81.3225 5.35987 0.997382 73.1102
352 2.90276 0.678354 3.58111 3.05528 0.220204 0.0 0.0600762 84.6254 77.5779 5.12235 0.96678 74.6896
354 2.77726 0.662147 3.43941 2.92348 0.210627 0.0 0.0582555 81.0162 74.0544 4.89804 0.937445 76.2725
356 2.65873 0.646409 3.30514 2.79905 0.201571 0.0 0.0565094 77.6095 70.7377 4.68608 0.909312 77.8593
358 2.54673 0.631135 3.17786 2.68151 0.193004 0.0 0.054834 74.3931 67.6141 4.48566 0.882321 79.4505
360 2.44085 0.616319 3.05717 2.57043 0.184893 0.0 0.0532259 71.3551 64.6709 4.29601 0.856416 81.0467
362 2.34073 0.601951 2.94268 2.46538 0.17721 0.0 0.0516818 68.4842 61.8959 4.11646 0.831543 82.6482
364 2.24599 0.588021 2.83401 2.36597 0.169928 0.0 0.0501985 65.7696 59.2779 3.94636 0.807652 84.2558
366 2.15629 0.574517 2.73081 2.27184 0.163022 0.0 0.0487731 63.2014 56.8061 3.78512 0.784695 85.8698
368 2.07132 0.561426 2.63274 2.18264 0.156469 0.0 0.0474029 60.77 54.4709 3.63219 0.762629 87.4908
370 1.99076 0.548737 2.5395 2.09807 0.150247 0.0 0.0460853 58.4666 52.263 3.48705 0.741409 89.1192
372 1.91436 0.536437 2.45079 2.01782 0.144337 0.0 0.0448177 56.283 50.1741 3.34924 0.720997 90.7555
374 1.84184 0.524511 2.36635 1.94163 0.13872 0.0 0.0435978 54.2116 48.1962 3.21831 0.701356 92.4
376 1.77296 0.512948 2.28591 1.86924 0.133379 0.0 0.0424235 52.2451 46.3222 3.09385 0.682448 94.0531
378 1.7075 0.501734 2.20923 1.80042 0.128298 0.0 0.0412926 50.377 44.5452 2.97549 0.664241 95.715
380 1.64525 0.490858 2.13611 1.73494 0.123461 0.0 0.0402032 48.6011 42.8591 2.86286 0.646702 97.386
382 1.58601 0.480307 2.06632 1.67261 0.118856 0.0 0.0391534 46.9118 41.258 2.75563 0.629802 99.0659
384 1.52961 0.47007 1.99968 1.61324 0.114467 0.0 0.0381415 45.3035 39.7367 2.65351 0.613511 100.755
386 1.47587 0.460135 1.936 1.55665 0.110284 0.0 0.0371656 43.7716 38.2902 2.55619 0.597803 102.453
388 1.42463 0.450491 1.87513 1.50268 0.106295 0.0 0.0362244 42.3113 36.9139 2.4634 0.582652 104.159
390 1.37576 0.441128 1.81689 1.45117 0.102489 0.0 0.0353161 40.9185 35.6036 2.3749 0.568034 105.873
392 1.32912 0.432036 1.76116 1.402 0.0988566 0.0 0.0344396 39.5891 34.3553 2.29045 0.553925 107.595
394 1.28458 0.423205 1.70778 1.35502 0.0953878 0.0 0.0335932 38.3196 33.1653 2.20983 0.540304 109.323
396 1.24201 0.414625 1.65664 1.31012 0.0920741 0.0 0.0327758 37.1064 32.0302 2.13283 0.52715 111.056
398 1.20132 0.406288 1.60761 1.26717 0.0889071 0.0 0.0319862 35.9464 30.9469 2.05925 0.514442 112.793
400 1.1624 0.398186 1.56059 1.22608 0.0858791 0.0 0.0312232 34.8366 29.9124 1.98892 0.502163 114.533